# Instrument line shape
# Line start [nm]: 311.5	Line End [nm]: 314.6
# Wavelength [nm]	Intensity [DN]
0.000000000000000000e+00 2.791346824842975711e-03
8.308398830001806346e-02 3.279832519190505752e-02
1.661514027999828613e-01 0.000000000000000000e+00
2.492022435000080804e-01 1.395673412421487812e-02
3.322365103999800340e-01 1.186322400558267876e-02
4.152542034999555653e-01 2.442428471737613516e-02
4.982553227999915180e-01 7.676203768318214972e-03
5.812398682999742050e-01 4.187020237264462916e-03
6.642078399999604699e-01 3.977669225401256337e-02
7.471592379000071560e-01 1.004884856943475124e-01
8.300940619999437331e-01 2.079553384508025238e-01
9.130123122999975749e-01 3.293789253314723386e-01
9.959139887999981511e-01 4.891835310537333004e-01
1.078799091500002305e+00 6.175854849965106697e-01
1.161667620400010037e+00 6.482903000697834983e-01
1.244519575500021347e+00 6.538729937194697195e-01
1.327354956799979391e+00 5.945568736915561869e-01
1.410173764299997856e+00 5.833914863921841887e-01
1.492975998000019899e+00 6.643405443126307874e-01
1.575761657899988677e+00 7.962316817864618645e-01
1.658530743999961032e+00 9.036985345429169314e-01
1.741283256299993809e+00 9.427773900907187032e-01
1.824019194799973320e+00 1.000000000000000000e+00
1.906738559499956409e+00 8.353105373342637474e-01
1.989441350399999919e+00 6.622470341939985516e-01
2.072127567499990164e+00 4.570830425680390552e-01
2.154797210800040830e+00 2.442428471737613516e-01
2.237450280299981387e+00 1.339846475924633407e-01
2.320086776000039208e+00 3.140265177948364100e-02
2.402706697899986921e+00 4.884856943475227031e-02
2.485310045999995054e+00 9.769713886950479390e-03
2.567896820300006766e+00 2.930914166085137398e-02
2.650467020800022055e+00 2.791346824842988461e-02
2.733020647499984079e+00 1.674808094905791758e-02
2.815557700400006524e+00 2.023726448011167051e-02
2.898078179499975704e+00 0.000000000000000000e+00
2.980582084800005305e+00 2.651779483600833279e-02
3.063069416299981640e+00 1.465457083042571995e-02
